BEGIN IONS
TITLE=id=PRD000715;PRIDE_Exp_Complete_Ac_24805.xml;spectrum=1
PEPMASS=1163.8678743333332
CHARGE=3+
1999.812	8.220
1706.657	20.703
694.478	14.028
663.650	7.851
903.889	26.111
1474.560	10.569
1019.366	15.294
920.813	6.160
1204.413	52.311
1410.403	12.249
1340.385	16.003
968.405	101.622
1606.703	5.477
1459.705	6.150
1376.368	61.133
1152.924	85.833
1841.067	10.283
1835.254	13.586
1331.870	32.425
781.503	31.323
1149.730	7792.376
1594.156	207.822
984.909	50.671
1024.324	50.015
1249.646	6.993
605.429	27.365
836.581	13.610
1096.986	3.093
547.914	3.442
1860.793	13.867
650.201	5.143
620.421	7.084
1107.479	36.920
1983.323	13.265
1707.758	13.970
969.782	13.080
385.152	9.881
614.468	9.777
1619.580	20.353
1140.993	432.770
1313.443	10.531
677.581	7.842
776.123	8.853
992.068	26.131
996.572	33.044
910.566	56.626
1176.450	71.603
524.448	4.804
849.267	6.081
973.759	18.374
1554.801	25.103
808.563	36.811
638.306	6.846
825.672	6.775
929.576	6.827
600.461	5.469
1075.141	9.908
1441.936	3.798
1337.622	25.265
412.418	5.134
1596.524	16.972
589.658	12.928
1101.971	15.080
1110.198	96.907
460.920	10.407
901.006	276.579
936.484	6.497
1149.000	5021.111
1332.696	6.498
597.573	290.594
1127.559	10.769
1237.851	63.629
1964.913	13.686
1122.425	7.468
1422.464	19.788
1344.521	6.449
1173.326	10.561
1081.645	136.824
1123.993	34.665
1480.301	150.480
803.688	21.770
1037.678	24.974
1050.732	408.647
1802.448	53.031
1285.668	104.692
1184.523	52.142
1175.557	175.698
1681.581	9.328
1530.016	35.556
1315.799	43.503
1682.921	16.897
695.383	26.026
431.293	13.167
969.108	7.382
377.964	5.112
1800.873	61.176
1764.904	5.145
932.417	12.228
532.345	26.958
675.490	8.255
1189.130	16.366
1258.578	32.093
450.429	4.151
1277.075	52.281
925.276	15.242
1354.859	6.497
1300.738	18.481
1290.704	162.701
1305.876	17.535
1624.823	8.867
1069.479	7.819
938.612	70.083
1401.490	5.484
1435.858	5.792
1104.553	424.328
1212.906	64.928
674.399	14.562
1092.786	19.939
462.311	10.263
1093.700	7.842
867.498	10.888
1177.108	42.431
1454.289	19.750
1364.830	227.805
1343.064	65.014
835.649	9.503
804.720	13.987
1102.784	35.019
1047.426	22.143
1217.616	25.791
1137.261	63.332
1396.597	19.050
678.194	8.528
934.557	21.794
1291.367	65.129
1146.640	15.010
473.367	13.553
1598.495	10.129
497.946	6.497
1264.541	13.167
1023.440	45.842
406.029	8.817
1375.219	35.255
1115.691	191.552
595.435	4.463
939.527	19.715
1424.713	5.758
1307.207	26.447
795.029	19.095
1049.797	3.108
1372.570	15.084
1232.015	24.520
646.763	138.020
1878.155	3.114
1154.562	30.920
382.143	9.932
1529.098	17.402
1487.798	32.149
1000.249	39.949
1338.865	10.506
786.218	21.235
1390.556	24.632
622.115	2.222
641.045	7.153
1486.784	127.155
485.233	11.345
1540.706	2.435
1152.021	139.457
892.649	54.369
698.242	11.082
1472.696	6.158
751.589	16.901
1684.683	17.666
1293.661	403.499
529.983	12.538
964.398	3.791
1253.102	22.154
1400.223	325.354
1804.545	34.171
733.367	6.497
933.507	127.008
1640.481	4.804
1294.499	55.123
960.261	50.542
1656.056	3.770
1262.182	216.855
1455.624	4.462
1833.447	30.110
1691.820	82.722
1360.288	25.215
1278.916	20.808
1462.057	6.523
950.814	13.215
1076.428	33.733
1387.609	34.838
1503.420	10.144
1259.478	15.520
1229.713	59.828
973.056	5.378
1065.452	32.906
1329.836	8.197
1716.844	27.591
1326.787	27.613
986.350	5.490
794.317	28.917
965.778	77.235
1440.689	242.620
785.478	22.102
847.243	7.852
1078.539	103.211
1292.567	533.907
861.503	8.197
977.234	112.161
1699.647	5.819
705.190	5.099
1502.779	9.527
1263.061	67.729
912.027	49.516
684.437	19.216
1608.027	15.649
1558.906	15.423
1420.025	43.325
1528.413	46.847
1544.194	39.521
1150.667	240.955
1144.855	1075.151
1915.964	8.778
1551.801	7.443
1434.332	13.190
1131.676	1847.916
1380.837	3.796
1241.301	16.971
1141.824	24.357
365.318	3.452
1062.562	14.305
1136.238	106.603
759.046	6.476
1747.384	10.458
868.861	16.911
1040.399	5.820
1397.350	5.417
1073.202	21.369
1605.664	12.831
1953.743	14.959
1361.926	4.135
396.184	10.572
1099.629	835.615
768.636	3.112
1801.696	29.428
639.297	22.277
1032.758	61.575
1198.509	29.401
1398.182	48.073
1772.902	7.511
1473.472	4.171
383.110	7.174
1042.615	30.490
1608.862	14.648
1048.520	33.782
552.086	15.013
958.475	23.371
1436.550	3.471
764.354	83.016
647.642	29.609
1423.409	40.717
1336.147	5.819
1817.229	5.143
873.237	5.144
1782.758	19.539
1369.772	9.197
1750.945	6.835
852.019	103.343
1515.597	27.055
994.239	18.844
1545.350	28.667
1068.630	5.469
761.025	18.353
902.050	20.298
1129.006	29.825
911.302	28.977
1114.775	1093.187
609.455	5.815
1585.371	20.573
882.175	11.216
467.369	12.884
1087.746	32.118
1206.609	8.189
1484.690	24.895
886.267	20.464
402.979	7.819
1984.280	23.525
1155.333	27.336
948.843	13.618
1604.920	14.519
889.508	27.040
587.392	5.476
1227.029	10.104
1029.458	18.228
1421.545	9.129
1003.143	85.122
1082.911	96.696
1428.988	19.725
1064.413	29.287
1085.158	95.687
1676.312	7.126
621.427	17.784
991.436	18.944
1505.128	5.072
631.499	16.724
1353.598	3.136
870.127	22.612
682.934	10.233
667.619	17.233
1686.705	53.692
1659.736	10.557
840.181	6.469
999.407	26.739
1692.779	9.200
1602.624	13.187
700.545	4.796
870.768	17.339
1584.647	40.264
845.854	76.247
1038.359	9.116
1113.349	14.586
809.309	4.778
729.431	22.298
954.111	12.574
1222.664	3.442
1033.801	43.240
1245.150	38.035
1752.923	2.797
544.524	25.458
1467.402	14.737
1125.415	140.393
1132.502	123.307
1632.629	11.471
1284.827	294.377
979.621	28.340
1788.047	17.505
1604.003	8.826
1471.269	27.973
644.413	3.780
940.680	4.506
1454.902	10.961
1143.556	7.760
525.448	6.871
1949.499	6.488
813.189	7.989
1041.573	42.229
971.559	11.696
1945.970	5.141
850.644	5.479
1119.622	22.325
502.034	2.101
1009.037	57.069
1725.501	24.854
1443.545	14.760
1521.664	12.840
484.497	19.400
1172.685	28.286
1930.021	7.521
1281.723	11.811
1595.452	26.965
1460.615	31.957
1588.432	16.995
1100.377	2182.851
854.658	10.333
1269.809	26.324
1488.792	12.167
844.105	27.560
1508.549	46.956
1006.496	3.797
1051.609	90.334
1575.432	24.036
1097.618	12.972
1242.205	16.902
1230.500	12.491
747.469	12.605
1538.575	40.369
619.242	5.821
580.988	11.630
1628.770	59.162
1625.826	11.299
827.558	8.430
1109.526	112.099
648.450	4.800
1126.070	57.417
1026.199	331.826
1756.923	6.541
1507.596	23.659
687.602	14.295
1140.086	1449.122
503.514	15.571
902.880	23.783
989.789	10.876
879.224	30.169
1055.426	40.994
1022.728	156.901
869.518	20.462
1821.555	8.430
1482.402	10.540
857.438	15.311
1409.369	33.364
1624.129	14.404
1147.607	11.884
987.597	3.136
1257.670	68.949
1018.072	14.286
908.877	33.497
812.444	91.986
774.797	23.922
1021.437	406.070
1311.705	15.844
777.596	16.582
1466.138	24.885
511.335	24.046
974.670	8.467
1667.355	17.688
1090.728	1044.573
479.538	16.546
944.418	3.120
826.328	7.514
1757.733	7.757
962.794	20.016
1333.738	17.359
1412.331	28.754
1346.133	4.453
927.387	28.278
1106.388	116.906
842.465	14.516
500.945	20.720
617.536	12.907
1668.642	22.551
596.456	18.833
527.229	5.480
633.436	10.228
1393.474	21.922
1673.280	186.091
1381.489	14.215
763.326	163.094
686.041	19.540
497.055	27.229
1469.001	9.483
1203.436	41.442
1981.380	11.816
1235.294	386.356
1560.114	16.820
1187.898	8.081
1031.122	11.220
1672.565	173.647
630.375	28.983
548.940	17.303
400.272	3.455
1135.293	206.207
1363.976	173.993
1015.885	17.394
1805.538	16.564
1627.071	75.898
1009.668	13.128
1876.764	12.244
734.992	13.267
978.180	40.193
1985.931	35.483
456.390	7.076
533.350	10.251
914.372	17.028
1850.526	4.809
1303.813	17.620
1359.253	12.248
1044.973	4.463
894.099	23.589
740.309	4.126
1077.679	64.138
469.129	4.796
891.877	105.431
995.621	4.123
1587.513	15.905
657.454	17.295
1385.348	5.817
1014.615	12.215
1079.345	5.384
802.298	32.221
1091.694	423.078
1854.052	4.159
1392.713	53.439
418.181	4.813
967.627	229.574
1934.060	36.204
360.266	19.484
843.277	55.729
807.564	213.461
1096.376	142.424
1274.689	19.050
413.103	3.793
1875.893	13.081
1013.948	8.813
1865.997	6.827
1195.574	639.971
735.677	5.506
598.309	35.056
1273.529	49.242
1196.776	93.011
1563.080	42.033
1539.530	16.656
1130.668	60.611
603.467	7.189
998.688	11.228
1066.107	9.421
1512.415	22.319
1469.625	10.464
1197.557	26.995
1399.388	73.477
796.135	4.929
1378.313	6.733
713.479	6.156
1705.829	4.457
1636.926	117.812
1727.979	18.309
743.496	129.615
427.411	7.851
1704.642	3.535
716.393	6.157
1543.033	14.269
1952.522	3.459
1439.641	139.150
1449.699	14.950
1689.672	200.073
1187.268	57.335
1537.335	53.009
1226.401	45.291
1179.616	3.763
1481.591	5.759
1628.135	144.465
536.318	3.791
760.262	4.474
411.237	12.588
828.606	19.798
1547.667	16.257
1302.191	60.810
1254.290	13.156
1522.835	33.575
1479.146	13.843
931.790	12.230
1582.959	11.809
1564.009	15.654
765.192	16.916
1201.494	50.015
1067.885	10.080
744.621	8.419
1769.928	9.116
820.598	15.566
1324.283	39.222
773.463	4.457
924.573	34.869
1027.034	40.985
1145.646	317.438
983.331	191.810
1637.651	35.591
1593.357	327.645
1202.496	119.398
522.016	17.667
599.352	57.541
1485.700	142.476
1213.714	29.382
526.436	7.422
1806.139	3.089
446.354	7.501
445.292	13.742
601.470	12.949
852.868	65.008
1295.123	56.699
831.671	4.812
799.238	8.865
537.216	3.442
1663.637	51.124
1095.358	134.961
1059.221	7.078
1591.845	10.192
926.238	26.908
1200.359	39.174
1629.872	8.515
1446.081	24.011
1186.457	71.498
1556.673	3.394
1365.742	17.490
1736.382	5.464
693.496	51.268
1358.330	34.174
1126.876	38.190
394.078	10.655
988.495	23.673
1086.259	119.299
1124.738	19.834
1343.785	20.214
1600.852	4.523
1371.088	107.947
1228.249	11.467
993.242	5.145
845.153	84.172
1030.476	16.655
928.441	17.914
1527.698	149.874
942.973	41.395
1642.810	20.407
673.210	11.502
1442.646	12.571
923.473	47.542
1702.486	4.467
568.411	10.222
1178.777	74.143
1615.724	31.730
1012.180	33.855
1509.829	4.457
1404.538	12.572
904.600	4.374
1457.159	13.266
1498.939	11.249
1193.518	5821.871
380.440	11.517
1444.614	77.715
453.009	13.945
1586.806	5.495
1234.157	52.074
907.196	24.571
1618.549	6.068
717.509	6.135
513.442	10.504
981.514	28.369
1061.803	14.234
862.110	19.126
916.436	16.307
1614.810	68.681
1470.411	35.280
1623.450	39.158
679.293	10.460
1526.636	235.705
1243.771	14.617
1973.853	28.300
941.458	12.604
1123.051	23.865
1236.217	115.686
561.476	7.510
1089.271	117.299
1806.775	17.692
1046.071	23.836
1111.546	53.060
1490.340	24.675
1731.588	6.457
1314.912	50.866
676.669	17.481
1491.746	4.471
1060.527	34.576
692.345	130.313
1210.466	3.789
1690.814	185.946
1326.090	13.557
1379.851	28.398
1685.463	35.546
571.422	11.807
1532.919	4.473
665.357	30.639
724.439	4.760
348.244	14.563
1067.139	77.762
1084.060	77.795
698.993	2.765
1225.543	17.778
1675.647	5.144
1391.323	33.562
1703.758	30.353
582.447	14.693
1803.263	5.708
1356.414	41.113
1964.001	16.908
1677.101	14.299
1035.100	8.141
1368.569	8.807
359.176	18.319
710.062	12.034
890.458	9.160
952.135	83.295
883.932	28.144
1342.247	218.044
982.502	302.631
1005.603	3.491
1819.137	5.812
876.606	8.536
1386.479	37.215
1934.760	9.518
1644.230	15.081
1351.531	9.920
1553.456	23.305
1101.131	505.673
1117.983	12.525
1070.785	15.909
1087.145	39.071
1017.472	61.881
1255.274	15.749
1350.609	29.820
1105.523	270.845
1578.740	10.915
1153.731	23.180
1282.817	8.851
478.679	33.506
1242.910	53.033
1170.346	10.274
452.237	9.945
1177.745	23.964
1849.337	21.069
1302.826	16.634
863.324	12.589
1001.075	72.280
834.223	28.168
545.685	14.233
922.415	163.653
1276.060	103.401
1268.044	12.825
1194.509	2933.514
1207.645	13.677
1494.549	6.476
1490.992	22.081
END IONS
BEGIN IONS
TITLE=id=PRD000715;PRIDE_Exp_Complete_Ac_24805.xml;spectrum=2
PEPMASS=1217.5823635
CHARGE=2+
765.512	15.976
1198.262	18.534
1246.784	10.214
1576.669	8.585
1356.682	174.597
1492.999	4.422
1205.945	8.947
END IONS
BEGIN IONS
TITLE=id=PRD000715;PRIDE_Exp_Complete_Ac_24805.xml;spectrum=3
PEPMASS=898.7290803333334
CHARGE=3+
1204.145	30.021
860.712	186.012
636.326	24.959
834.768	7.620
1246.574	15.192
888.659	26.468
877.245	17.122
545.990	8.636
869.014	45.857
613.426	24.467
569.330	10.693
975.753	5.659
1226.207	8.455
855.937	30.492
1004.795	4.109
1406.715	6.529
1091.982	44.005
1170.677	22.533
259.291	6.834
579.311	4.082
501.251	5.373
1082.812	2.798
864.164	44.519
883.632	19.662
1765.159	3.181
666.793	10.368
1180.795	10.035
995.660	5.662
1488.888	4.723
1247.667	4.608
1070.307	6.007
1212.782	11.338
1257.038	7.784
640.388	9.141
1137.762	13.366
257.299	3.745
1031.016	61.499
390.324	19.209
874.178	75.608
1459.572	15.524
1135.454	23.146
460.333	4.087
519.391	8.575
568.504	3.443
880.195	11.319
1147.734	2.496
1457.468	12.788
1323.795	5.356
1192.507	31.986
725.640	2.462
885.601	6.012
941.047	9.391
743.503	12.086
784.661	11.398
939.584	21.369
325.293	10.048
703.180	13.372
823.358	11.585
509.225	10.502
927.826	11.982
1206.596	4.408
813.604	6.012
1760.437	8.904
758.523	30.317
842.860	14.973
454.482	6.652
1211.407	51.194
362.408	5.298
1575.696	7.507
775.809	35.474
1290.545	11.821
753.678	144.263
881.050	28.999
1307.001	4.929
835.506	9.561
910.120	11.003
1116.194	8.121
586.643	26.602
1219.811	3.761
1236.814	8.257
738.681	33.207
537.411	71.568
598.416	4.732
597.340	19.143
981.919	11.208
722.447	6.521
1080.408	13.795
742.803	3.439
1506.513	15.763
409.275	11.663
1189.499	88.192
1104.162	26.926
803.477	34.094
1343.287	10.038
1217.608	12.611
832.587	9.110
695.885	9.535
946.740	26.620
1441.484	3.781
889.508	42.297
559.325	16.141
1202.329	33.507
1447.571	6.943
735.582	4.739
723.254	5.692
830.802	51.657
1623.474	8.254
1121.592	12.495
754.465	28.156
801.530	25.150
785.727	5.045
1188.596	65.908
853.419	4.085
927.203	6.849
712.419	15.517
886.787	35.612
1496.571	6.856
734.455	4.266
806.413	5.892
848.760	31.867
931.656	11.013
1021.644	11.145
1073.327	29.996
767.462	23.194
645.445	26.888
1161.374	22.304
706.466	10.063
533.616	5.365
1737.751	4.411
866.974	324.460
989.234	9.745
625.533	4.284
275.324	26.750
1351.168	5.016
911.008	90.316
1113.421	17.402
951.614	22.198
1444.855	2.159
959.852	17.311
1346.728	12.929
778.346	39.992
630.214	6.829
1645.947	15.715
1099.422	18.430
1101.849	16.613
763.179	21.534
862.501	13.890
1507.638	11.783
872.904	11.589
863.376	81.189
1548.075	12.857
783.428	5.372
422.106	5.687
887.597	5.692
1284.679	13.691
1263.509	5.693
1071.379	27.549
876.203	6.569
511.450	6.200
1272.482	5.046
1094.079	8.230
1223.443	9.071
655.995	4.696
779.806	26.350
849.600	30.913
966.296	17.098
1193.366	3.769
980.777	2.478
924.076	24.264
1410.716	6.897
1143.986	13.089
861.699	4.058
1530.202	4.909
1201.584	18.685
1025.967	21.592
854.299	33.214
678.250	21.849
1074.071	18.257
686.698	14.555
1270.730	10.504
677.488	3.181
623.343	14.861
1557.766	4.406
1111.334	30.895
728.397	9.445
423.147	4.404
314.479	16.814
1155.626	26.892
938.386	20.308
787.480	17.350
1152.928	28.697
912.078	52.797
1101.065	27.012
342.432	3.120
859.979	175.775
514.299	6.509
1079.547	67.085
477.239	5.750
901.809	21.234
698.232	5.046
1239.512	8.869
768.797	13.237
760.464	24.151
879.302	18.823
949.510	12.817
816.237	6.898
667.524	4.725
1088.820	16.780
1362.908	6.988
943.203	4.400
618.122	17.024
1293.471	4.081
1666.524	21.965
1139.954	12.301
802.327	19.693
545.188	6.975
937.307	4.082
1261.170	5.659
280.088	4.053
1283.984	9.469
1173.190	6.652
1118.575	12.810
872.267	23.224
1066.551	16.730
776.513	160.148
820.123	27.067
1213.476	11.145
857.628	51.878
611.173	17.845
952.649	18.396
1243.698	7.162
1344.652	3.729
413.248	16.630
480.232	3.138
1746.702	3.437
530.548	6.529
978.472	16.461
1461.896	36.128
540.818	4.744
627.713	9.072
1158.413	8.915
705.130	123.321
1857.210	5.677
915.304	13.571
665.516	4.728
840.647	20.369
890.306	25.409
1716.898	9.405
891.390	12.747
1463.487	8.826
977.847	9.834
1117.735	13.143
1012.651	13.599
827.060	27.154
367.362	4.084
1229.295	13.259
573.385	3.104
960.571	67.741
1014.426	6.346
1291.498	7.912
751.047	32.752
493.353	6.656
847.288	97.939
1578.292	6.006
303.168	2.802
1042.489	13.456
822.325	32.135
850.364	87.201
875.326	112.042
1251.808	16.012
1756.709	5.242
1245.496	4.009
950.861	35.675
1275.480	40.005
1019.542	11.660
1048.552	16.502
1030.294	62.504
373.170	6.337
844.447	32.114
484.451	14.382
1434.490	8.547
773.555	13.997
664.319	3.139
1413.659	8.592
1166.553	23.196
973.898	5.688
1462.881	8.434
762.224	6.007
396.485	45.434
731.533	7.039
617.175	20.460
881.771	24.195
907.032	13.270
804.374	4.264
1018.691	10.401
794.045	22.239
796.344	5.691
736.972	12.206
1110.176	9.541
833.834	15.387
1022.737	19.001
882.724	17.851
866.263	1605.929
777.528	39.887
814.971	12.608
1162.552	66.926
746.322	3.445
867.720	11.418
972.193	27.439
357.307	4.082
411.342	11.402
749.370	6.520
1154.153	15.292
END IONS
BEGIN IONS
TITLE=id=PRD000715;PRIDE_Exp_Complete_Ac_24805.xml;spectrum=4
PEPMASS=60000
CHARGE=2+
1236.700	27.802
1595.585	73.300
1127.560	155.521
1084.527	26.855
924.567	17.088
713.569	8.574
1058.360	13.059
1414.543	2.569
1586.430	20.049
894.507	12.225
669.339	10.352
1721.245	69.788
1987.967	14.444
1963.202	19.238
1690.490	210.010
640.973	5.717
1836.496	7.835
1039.448	1106.771
1350.456	20.022
1356.644	2.367
975.429	24.816
659.283	9.437
1773.411	14.407
870.385	8.807
1253.586	59.871
1960.453	10.611
1167.767	110.159
1439.206	14.199
1177.598	1.485
1415.654	1.933
804.377	21.369
772.538	12.451
1104.243	3.294
1935.567	19.985
1029.527	3.224
1721.883	9.503
1067.478	22.015
869.287	4.880
726.266	2.357
1112.885	14.856
1214.603	2.573
1173.664	14.144
1650.786	11.584
1201.784	32.533
949.993	7.924
1808.161	34.315
1876.583	6.904
1782.490	45.204
1360.391	8.946
411.234	10.773
1529.694	4.526
1483.673	220.534
912.104	17.178
598.204	3.784
1507.899	10.349
1762.719	158.600
657.427	10.106
1411.659	815.247
1745.860	3.441
1992.099	17.378
1691.492	109.343
1446.098	11.440
954.488	4.734
1358.729	18.045
1352.113	22.455
1980.938	12.503
1755.970	25.438
1261.948	11.907
1464.931	44.160
1021.586	26.339
1189.674	338.255
1775.722	3.874
1322.410	5.165
1726.158	11.094
1307.521	19.704
1377.606	5.539
957.327	36.067
948.474	26.719
964.568	23.309
876.409	450.578
1372.116	11.113
1386.585	63.040
853.175	9.319
1945.172	11.153
1361.355	14.237
1032.751	9.937
1990.732	8.816
1952.784	1.488
1397.363	12.700
1373.443	3.442
672.681	5.398
807.554	13.545
593.591	5.168
734.371	14.628
1729.666	9.053
1251.408	70.082
495.389	11.217
1320.668	36.987
932.754	2.778
809.343	20.958
1942.651	4.269
911.343	3.010
1099.578	12.490
1988.852	41.157
1826.832	13.593
1746.484	3.670
627.418	21.918
1284.126	631.559
1155.381	97.023
1239.264	6.268
1163.261	25.001
1791.779	11.712
839.165	16.591
602.451	29.260
1265.836	351.337
976.940	13.050
1463.405	4.920
1527.416	297.463
673.539	14.376
588.457	47.272
1071.766	7.538
1629.701	20.446
1594.073	1.963
1064.445	3.658
827.359	3.658
1949.030	20.333
1023.507	47.265
834.456	9.260
1922.600	152.562
1031.734	48.547
1172.349	75.639
1438.344	196.730
1541.737	35.657
1391.570	7.213
926.757	8.242
436.399	5.396
756.845	2.358
646.391	2.789
727.403	14.631
628.301	2.788
1983.715	6.412
1460.823	1.962
630.295	3.001
1923.676	52.544
1687.498	12.829
1482.012	25.871
1359.545	27.451
1017.359	46.135
1370.395	18.170
835.526	3.440
1119.282	134.902
1068.102	11.893
1216.563	55.298
1235.830	12.230
1245.202	7.488
1331.384	9.638
1294.311	2.150
1654.400	153.142
1446.875	2.788
1523.401	12.118
1684.090	5.659
1300.845	2.358
1380.046	4.089
1266.699	48.664
1306.283	2.139
572.570	1.745
858.641	53.411
654.292	5.522
1288.686	12.643
1170.699	10.538
910.471	8.214
1749.810	6.310
1533.711	3.250
1426.443	9.885
736.067	16.688
481.460	6.174
1093.693	1.705
401.171	13.790
1986.284	10.758
1800.607	144.486
1202.744	11.092
1528.022	46.066
819.158	6.285
1717.052	11.970
484.370	15.680
842.419	1.924
1077.850	14.013
1787.730	15.517
1138.520	27.103
1637.433	6.012
1233.382	5.391
1475.514	9.385
895.588	37.556
784.471	6.903
1555.361	9.446
1824.854	47.772
1061.389	13.606
1100.867	44.898
1579.202	3.790
1456.388	174.300
952.127	8.642
1888.421	26.398
733.387	6.746
1744.989	20.104
1003.964	17.376
971.433	11.617
750.198	3.725
855.435	3.008
786.560	27.731
601.545	4.004
1218.409	13.093
1321.610	11.937
1325.428	10.689
1783.480	38.042
748.442	414.224
1292.923	11.770
1794.944	4.744
619.319	4.133
1210.614	12.287
959.301	6.628
1734.770	31.742
1384.689	33.124
1733.633	32.406
823.298	2.134
1648.751	15.714
1396.456	4.013
1312.372	7.490
1493.448	3.262
1136.743	6.578
1217.447	3.971
407.876	1.919
